Wavelength (nm),Intensity
379.762,22.795
380.037,22.911
380.313,23.028
380.588,23.15
380.864,23.245
381.141,23.34
381.418,23.392
381.695,23.451
381.973,23.519
382.251,23.614
382.529,23.685
382.807,23.685
383.086,23.647
383.366,23.649
383.645,23.715
383.925,23.872
384.206,24.024
384.486,24.203
384.767,24.33
385.048,24.469
385.33,24.591
385.612,24.732
385.894,24.868
386.176,25.001
386.459,25.117
386.742,25.25
387.025,25.383
387.309,25.532
387.593,25.663
387.877,25.801
388.161,25.942
388.446,26.102
388.731,26.281
389.016,26.504
389.301,26.732
389.587,26.968
389.872,27.158
390.158,27.345
390.445,27.519
390.731,27.728
391.018,27.912
391.305,28.121
391.592,28.254
391.879,28.17
392.167,27.98
392.455,27.725
392.743,27.643
393.031,27.614
393.319,27.692
393.608,27.858
393.896,28.102
394.185,28.376
394.474,28.639
394.764,28.837
395.053,28.97
395.343,29.041
395.633,29.073
395.923,29.087
396.213,29.144
396.503,29.309
396.793,29.635
397.084,30.085
397.374,30.615
397.665,31.19
397.956,31.738
398.247,32.27
398.539,32.761
398.83,33.265
399.122,33.77
399.413,34.234
399.705,34.481
399.997,34.671
400.289,34.834
400.581,35.149
400.873,35.409
401.165,35.675
401.458,35.884
401.75,36.085
402.043,36.242
402.336,36.418
402.628,36.557
402.921,36.673
403.214,36.779
403.507,36.893
403.801,37.007
404.094,37.102
404.387,37.192
404.681,37.311
404.974,37.422
405.268,37.539
405.561,37.677
405.855,37.846
406.149,38.041
406.443,38.285
406.736,38.508
407.03,38.725
407.324,38.901
407.618,39.072
407.913,39.257
408.207,39.376
408.501,39.484
408.795,39.506
409.089,39.56
409.384,39.653
409.678,39.818
409.973,40.035
410.267,40.279
410.561,40.57
410.856,40.8
411.151,40.977
411.445,41.093
411.74,41.194
412.034,41.316
412.329,41.433
412.624,41.566
412.918,41.734
413.213,41.932
413.508,42.135
413.802,42.309
414.097,42.488
414.392,42.659
414.687,42.849
414.982,43.031
415.276,43.248
415.571,43.449
415.866,43.598
416.161,43.717
416.455,43.796
416.75,43.934
417.045,44.092
417.34,44.32
417.635,44.594
417.929,44.86
418.224,45.028
418.519,45.204
418.814,45.4
419.108,45.652
419.403,45.883
419.698,46.11
419.992,46.39
420.287,46.631
420.582,46.851
420.876,46.965
421.171,47.057
421.465,47.139
421.76,47.323
422.055,47.551
422.349,47.847
422.644,48.159
422.938,48.466
423.232,48.742
423.527,48.997
423.821,49.263
424.115,49.464
424.41,49.602
424.704,49.735
424.998,49.844
425.292,49.879
425.586,49.868
425.881,49.915
426.175,50.045
426.469,50.121
426.763,50.132
427.056,50.118
427.35,50.118
427.644,50.045
427.938,49.841
428.232,49.548
428.525,49.301
428.819,49.163
429.113,49.185
429.406,49.437
429.7,49.991
429.993,50.783
430.287,51.591
430.58,52.308
430.873,52.918
431.166,53.458
431.46,53.795
431.753,53.906
432.046,53.906
432.339,53.985
432.632,54.164
432.925,54.402
433.218,54.663
433.51,55.01
433.803,55.471
434.096,55.965
434.388,56.386
434.681,56.703
434.973,56.931
435.266,57.04
435.558,57.067
435.85,57.004
436.143,56.918
436.435,56.825
436.727,56.85
437.019,56.988
437.311,57.205
437.603,57.477
437.895,57.832
438.186,58.266
438.478,58.706
438.77,59.096
439.061,59.446
439.353,59.81
439.644,60.233
439.936,60.708
440.227,61.245
440.518,61.745
440.809,62.114
441.1,62.377
441.391,62.618
441.682,62.895
441.973,63.188
442.264,63.446
442.555,63.717
442.845,63.926
443.136,64.065
443.426,64.1
443.717,64.127
444.007,64.208
444.297,64.339
444.588,64.488
444.878,64.735
445.168,65.142
445.458,65.644
445.748,66.113
446.038,66.417
446.327,66.64
446.617,66.781
446.907,66.922
447.196,67.098
447.486,67.369
447.775,67.665
448.064,67.901
448.354,68.078
448.643,68.249
448.932,68.379
449.221,68.46
449.51,68.436
449.799,68.287
450.087,68.018
450.376,67.679
450.665,67.359
450.953,67.079
451.242,66.908
451.53,66.846
451.818,66.859
452.107,66.938
452.395,67.038
452.683,67.179
452.971,67.28
453.259,67.388
453.547,67.549
453.835,67.749
454.122,67.956
454.41,68.102
454.698,68.23
454.985,68.338
455.272,68.352
455.56,68.251
455.847,68.083
456.134,67.882
456.421,67.757
456.708,67.671
456.995,67.652
457.282,67.662
457.569,67.703
457.856,67.785
458.142,67.896
458.429,68.018
458.716,68.156
459.002,68.292
459.288,68.447
459.575,68.599
459.861,68.729
460.147,68.783
460.433,68.821
460.719,68.775
461.005,68.74
461.291,68.639
461.577,68.561
461.862,68.485
462.148,68.452
462.434,68.455
462.719,68.49
463.004,68.574
463.29,68.691
463.575,68.778
463.86,68.843
464.145,68.835
464.431,68.813
464.716,68.805
465,68.875
465.285,69.071
465.57,69.309
465.855,69.546
466.139,69.714
466.424,69.855
466.709,69.936
466.993,69.961
467.277,69.923
467.562,69.936
467.846,69.988
468.13,70.142
468.414,70.427
468.698,70.799
468.982,71.168
469.266,71.488
469.55,71.798
469.834,72.118
470.117,72.414
470.401,72.601
470.685,72.764
470.968,72.918
471.252,73.157
471.535,73.401
471.818,73.624
472.101,73.827
472.385,74.047
472.668,74.28
472.951,74.478
473.234,74.628
473.517,74.766
473.8,74.978
474.082,75.249
474.365,75.604
474.648,75.919
474.931,76.177
475.213,76.337
475.496,76.522
475.778,76.698
476.061,76.88
476.343,77.051
476.625,77.243
476.907,77.474
477.19,77.661
477.472,77.865
477.754,78.011
478.036,78.144
478.318,78.25
478.6,78.394
478.881,78.54
479.163,78.641
479.445,78.665
479.726,78.638
480.008,78.538
480.29,78.369
480.571,78.187
480.853,77.995
481.134,77.791
481.415,77.517
481.697,77.127
481.978,76.622
482.259,76.104
482.54,75.659
482.821,75.284
483.102,75.016
483.383,74.91
483.664,75.021
483.945,75.284
484.226,75.661
484.507,76.096
484.788,76.559
485.068,76.969
485.349,77.327
485.629,77.648
485.91,77.951
486.191,78.272
486.471,78.543
486.751,78.711
487.032,78.798
487.312,78.85
487.592,78.877
487.873,78.85
488.153,78.822
488.433,78.869
488.713,78.991
488.993,79.118
489.273,79.267
489.553,79.403
489.833,79.571
490.113,79.78
490.393,80.043
490.673,80.364
490.952,80.673
491.232,80.947
491.512,81.123
491.792,81.267
492.071,81.419
492.351,81.585
492.63,81.709
492.91,81.766
493.189,81.783
493.469,81.753
493.748,81.728
494.027,81.69
494.307,81.699
494.586,81.761
494.865,81.864
495.145,81.924
495.424,81.848
495.703,81.693
495.982,81.549
496.261,81.449
496.54,81.376
496.819,81.324
497.098,81.302
497.377,81.324
497.656,81.378
497.935,81.468
498.214,81.587
498.493,81.685
498.771,81.785
499.05,81.853
499.329,81.926
499.608,81.983
499.886,82.076
500.165,82.171
500.444,82.268
500.722,82.38
501.001,82.494
501.279,82.599
501.558,82.654
501.836,82.716
502.115,82.792
502.393,82.898
502.672,82.99
502.95,83.042
503.229,83.044
503.507,83.017
503.785,83.006
504.064,82.971
504.342,82.925
504.62,82.911
504.898,82.979
505.177,83.085
505.455,83.188
505.733,83.256
506.011,83.348
506.289,83.422
506.567,83.492
506.845,83.489
507.123,83.465
507.402,83.419
507.68,83.416
507.958,83.424
508.236,83.378
508.514,83.272
508.791,83.161
509.069,83.077
509.347,82.96
509.625,82.819
509.903,82.721
510.181,82.675
510.459,82.599
510.737,82.404
511.015,82.092
511.292,81.739
511.57,81.392
511.848,81.142
512.126,80.977
512.403,80.906
512.681,80.868
512.959,80.852
513.237,80.844
513.514,80.86
513.792,80.944
514.07,81.118
514.347,81.403
514.625,81.712
514.903,81.983
515.18,82.198
515.458,82.38
515.735,82.624
516.013,82.86
516.291,83.099
516.568,83.278
516.846,83.419
517.123,83.492
517.401,83.527
517.678,83.606
517.956,83.788
518.233,84.018
518.511,84.222
518.788,84.349
519.066,84.436
519.343,84.482
519.621,84.499
519.898,84.469
520.176,84.436
520.453,84.36
520.731,84.238
521.008,84.108
521.285,84.043
521.563,84.065
521.84,84.138
522.118,84.222
522.395,84.352
522.672,84.51
522.95,84.672
523.227,84.813
523.505,84.933
523.782,85.058
524.059,85.218
524.337,85.41
524.614,85.63
524.892,85.826
525.169,86.005
525.446,86.143
525.724,86.208
526.001,86.157
526.278,86.059
526.556,85.95
526.833,85.874
527.11,85.872
527.388,85.912
527.665,85.991
527.943,86.053
528.22,86.108
528.497,86.159
528.775,86.181
529.052,86.235
529.329,86.295
529.607,86.393
529.884,86.498
530.161,86.604
530.439,86.661
530.716,86.653
530.993,86.645
531.271,86.645
531.548,86.645
531.825,86.615
532.103,86.561
532.38,86.501
532.657,86.428
532.935,86.355
533.212,86.271
533.489,86.189
533.767,86.14
534.044,86.091
534.322,86.037
534.599,85.969
534.876,85.945
535.154,85.931
535.431,85.92
535.708,85.877
535.986,85.842
536.263,85.79
536.541,85.779
536.818,85.801
537.095,85.896
537.373,85.994
537.65,86.105
537.928,86.184
538.205,86.241
538.482,86.254
538.76,86.243
539.037,86.243
539.315,86.241
539.592,86.241
539.869,86.243
540.147,86.279
540.424,86.3
540.702,86.276
540.979,86.205
541.257,86.124
541.534,86.119
541.812,86.165
542.089,86.235
542.367,86.279
542.644,86.292
542.921,86.344
543.199,86.387
543.476,86.436
543.754,86.441
544.031,86.441
544.309,86.417
544.587,86.406
544.864,86.382
545.142,86.379
545.419,86.376
545.697,86.382
545.974,86.39
546.252,86.371
546.529,86.376
546.807,86.401
547.084,86.444
547.362,86.46
547.64,86.452
547.917,86.417
548.195,86.384
548.472,86.336
548.75,86.284
549.028,86.208
549.305,86.146
549.583,86.086
549.86,86.015
550.138,85.929
550.416,85.839
550.693,85.782
550.971,85.752
551.249,85.741
551.526,85.717
551.804,85.684
552.082,85.633
552.359,85.573
552.637,85.511
552.915,85.467
553.193,85.467
553.47,85.465
553.748,85.457
554.026,85.413
554.303,85.378
554.581,85.362
554.859,85.386
555.137,85.432
555.414,85.467
555.692,85.511
555.97,85.541
556.248,85.608
556.525,85.657
556.803,85.69
557.081,85.698
557.359,85.72
557.637,85.75
557.914,85.75
558.192,85.698
558.47,85.611
558.748,85.524
559.026,85.486
559.304,85.448
559.581,85.427
559.859,85.405
560.137,85.419
560.415,85.402
560.693,85.356
560.971,85.324
561.249,85.315
561.527,85.294
561.804,85.267
562.082,85.223
562.36,85.212
562.638,85.163
562.916,85.139
563.194,85.106
563.472,85.093
563.75,85.085
564.028,85.085
564.306,85.085
564.584,85.06
564.862,85.044
565.14,85.025
565.418,85.014
565.696,84.995
565.973,84.998
566.251,85.003
566.529,85.02
566.807,85.06
567.085,85.109
567.363,85.12
567.641,85.077
567.919,85.044
568.197,85.041
568.475,85.052
568.753,85.044
569.031,85.047
569.309,85.085
569.587,85.147
569.865,85.199
570.143,85.182
570.421,85.128
570.7,85.071
570.978,85.052
571.256,85.055
571.534,85.041
571.812,85.022
572.09,84.995
572.368,84.968
572.646,84.949
572.924,84.96
573.202,84.982
573.48,85.025
573.758,85.055
574.036,85.088
574.314,85.104
574.592,85.104
574.87,85.098
575.148,85.033
575.426,84.971
575.704,84.898
575.983,84.903
576.261,84.941
576.539,84.979
576.817,84.974
577.095,84.933
577.373,84.879
577.651,84.805
577.929,84.729
578.207,84.632
578.485,84.542
578.763,84.423
579.041,84.292
579.319,84.16
579.598,84.021
579.876,83.891
580.154,83.723
580.432,83.476
580.71,83.158
580.988,82.757
581.266,82.361
581.544,81.983
581.822,81.655
582.1,81.427
582.378,81.289
582.656,81.229
582.934,81.183
583.212,81.115
583.49,81.039
583.768,80.958
584.046,80.885
584.325,80.836
584.603,80.811
584.881,80.822
585.159,80.83
585.437,80.817
585.715,80.752
585.993,80.73
586.271,80.692
586.549,80.676
586.827,80.602
587.105,80.575
587.383,80.581
587.661,80.583
587.939,80.619
588.217,80.659
588.495,80.7
588.773,80.716
589.051,80.711
589.329,80.716
589.607,80.659
589.885,80.578
590.163,80.526
590.44,80.513
590.718,80.586
590.996,80.657
591.274,80.741
591.552,80.781
591.83,80.795
592.108,80.743
592.386,80.657
592.664,80.567
592.942,80.513
593.22,80.445
593.497,80.404
593.775,80.388
594.053,80.391
594.331,80.393
594.609,80.391
594.887,80.404
595.164,80.385
595.442,80.355
595.72,80.296
595.998,80.271
596.276,80.26
596.553,80.274
596.831,80.277
597.109,80.228
597.387,80.147
597.664,80.046
597.942,79.959
598.22,79.891
598.498,79.848
598.775,79.802
599.053,79.745
599.331,79.653
599.608,79.579
599.886,79.482
600.164,79.324
600.441,79.17
600.719,79.02
600.996,78.885
601.274,78.73
601.552,78.554
601.829,78.364
602.107,78.179
602.384,78.063
602.662,77.998
602.939,77.941
603.217,77.837
603.494,77.74
603.772,77.677
604.049,77.645
604.327,77.591
604.604,77.425
604.882,77.219
605.159,76.994
605.436,76.809
605.714,76.676
605.991,76.592
606.268,76.524
606.546,76.432
606.823,76.302
607.1,76.196
607.378,76.063
607.655,75.944
607.932,75.735
608.209,75.512
608.487,75.301
608.764,75.151
609.041,75.04
609.318,74.964
609.595,74.94
609.873,74.931
610.15,74.931
610.427,74.959
610.704,74.994
610.981,74.999
611.258,74.931
611.535,74.79
611.812,74.644
612.089,74.53
612.366,74.511
612.643,74.554
612.92,74.649
613.197,74.736
613.474,74.763
613.751,74.731
614.027,74.674
614.304,74.609
614.581,74.541
614.858,74.465
615.135,74.4
615.412,74.278
615.688,74.161
615.965,74.101
616.242,74.017
616.518,73.884
616.795,73.659
617.072,73.496
617.348,73.385
617.625,73.339
617.902,73.339
618.178,73.398
618.455,73.442
618.731,73.48
619.008,73.483
619.284,73.491
619.561,73.453
619.837,73.355
620.114,73.249
620.39,73.13
620.666,73.01
620.943,72.888
621.219,72.788
621.495,72.766
621.772,72.812
622.048,72.872
622.324,72.88
622.6,72.785
622.876,72.688
623.153,72.59
623.429,72.53
623.705,72.416
623.981,72.338
624.257,72.302
624.533,72.365
624.809,72.481
625.085,72.601
625.361,72.671
625.637,72.636
625.913,72.579
626.189,72.533
626.465,72.549
626.741,72.541
627.016,72.522
627.292,72.451
627.568,72.4
627.844,72.37
628.12,72.365
628.395,72.365
628.671,72.397
628.947,72.449
629.222,72.492
629.498,72.514
629.773,72.576
630.049,72.614
630.324,72.62
630.6,72.563
630.875,72.525
631.151,72.479
631.426,72.376
631.702,72.264
631.977,72.18
632.252,72.123
632.528,72.093
632.803,72.034
633.078,71.958
633.353,71.846
633.628,71.773
633.904,71.703
634.179,71.629
634.454,71.505
634.729,71.404
635.004,71.304
635.279,71.193
635.554,71.07
635.829,70.916
636.104,70.783
636.379,70.653
636.654,70.53
636.929,70.427
637.203,70.324
637.478,70.248
637.753,70.132
638.028,70.001
638.303,69.817
638.577,69.594
638.852,69.32
639.126,69.03
639.401,68.756
639.676,68.569
639.95,68.482
640.225,68.46
640.499,68.444
640.774,68.373
641.048,68.224
641.322,68.004
641.597,67.795
641.871,67.698
642.145,67.703
642.42,67.73
642.694,67.728
642.968,67.681
643.242,67.614
643.517,67.532
643.791,67.481
644.065,67.44
644.339,67.413
644.613,67.34
644.887,67.215
645.161,67.019
645.435,66.865
645.709,66.762
645.983,66.645
646.256,66.471
646.53,66.252
646.804,66.053
647.078,65.812
647.352,65.538
647.625,65.31
647.899,65.123
648.173,65.009
648.446,64.938
648.72,64.946
648.993,65.02
649.267,65.069
649.54,65.074
649.814,65.033
650.087,64.979
650.361,64.927
650.634,64.906
650.907,64.914
651.181,64.917
651.454,64.944
651.727,64.998
652,65.155
652.274,65.302
652.547,65.459
652.82,65.568
653.093,65.66
653.366,65.687
653.639,65.684
653.912,65.611
654.185,65.495
654.458,65.364
654.731,65.288
655.004,65.248
655.277,65.185
655.549,65.123
655.822,65.104
656.095,65.123
656.368,65.163
656.64,65.185
656.913,65.182
657.186,65.169
657.458,65.134
657.731,65.079
658.003,64.982
658.276,64.879
658.548,64.789
658.821,64.705
659.093,64.667
659.366,64.594
659.638,64.507
659.91,64.404
660.183,64.347
660.455,64.238
660.727,64.124
660.999,64.035
661.271,64.046
661.544,64.04
661.816,64.002
662.088,63.88
662.36,63.769
662.632,63.674
662.904,63.658
663.176,63.628
663.448,63.568
663.72,63.481
663.991,63.449
664.263,63.392
664.535,63.316
664.807,63.218
665.079,63.185
665.35,63.147
665.622,63.082
665.894,62.996
666.165,62.917
666.437,62.822
666.709,62.751
666.98,62.74
667.252,62.751
667.523,62.762
667.795,62.792
668.066,62.822
668.337,62.838
668.609,62.759
668.88,62.656
669.151,62.54
669.423,62.453
669.694,62.374
669.965,62.306
670.236,62.239
670.508,62.201
670.779,62.163
671.05,62.135
671.321,62.065
671.592,61.981
671.863,61.886
672.134,61.783
672.405,61.65
672.676,61.509
672.947,61.384
673.218,61.335
673.489,61.273
673.759,61.229
674.03,61.115
674.301,61.012
674.572,60.866
674.843,60.73
675.113,60.564
675.384,60.418
675.655,60.239
675.925,60.076
676.196,59.889
676.466,59.672
676.737,59.455
677.007,59.191
677.278,58.931
677.548,58.57
677.819,58.196
678.089,57.786
678.36,57.458
678.63,57.167
678.9,56.983
679.171,56.839
679.441,56.768
679.711,56.69
679.981,56.6
680.252,56.505
680.522,56.364
680.792,56.169
681.062,55.903
681.332,55.691
681.602,55.534
681.872,55.417
682.142,55.282
682.412,55.135
682.682,54.991
682.952,54.899
683.222,54.837
683.492,54.801
683.762,54.72
684.032,54.647
684.302,54.584
684.572,54.511
684.842,54.397
685.111,54.234
685.381,54.136
685.651,54.066
685.921,54.036
686.19,54.017
686.46,53.987
686.73,53.933
686.999,53.811
687.269,53.71
687.538,53.607
687.808,53.529
688.078,53.436
688.347,53.341
688.617,53.219
688.886,53.103
689.156,52.975
689.425,52.818
689.694,52.644
689.964,52.514
690.233,52.424
690.503,52.316
690.772,52.215
691.041,52.099
691.311,51.982
691.58,51.814
691.849,51.692
692.118,51.594
692.388,51.54
692.657,51.418
692.926,51.279
693.195,51.079
693.464,50.872
693.733,50.663
694.003,50.517
694.272,50.414
694.541,50.354
694.81,50.313
695.079,50.259
695.348,50.199
695.617,50.115
695.886,49.993
696.155,49.86
696.424,49.703
696.693,49.565
696.962,49.396
697.231,49.239
697.5,49.095
697.769,48.973
698.038,48.886
698.306,48.851
698.575,48.851
698.844,48.821
699.113,48.74
699.382,48.59
699.65,48.455
699.919,48.333
700.188,48.249
700.457,48.164
700.726,48.086
700.994,47.993
701.263,47.88
701.532,47.711
701.8,47.519
702.069,47.274
702.338,47.082
702.606,46.908
702.875,46.767
703.144,46.566
703.412,46.325
703.681,46.048
703.949,45.823
704.218,45.627
704.487,45.435
704.755,45.226
705.024,45.014
705.292,44.811
705.561,44.588
705.829,44.314
706.098,44.008
706.366,43.649
706.635,43.251
706.903,42.792
707.172,42.309
707.44,41.869
707.709,41.454
707.977,41.036
708.246,40.6
708.514,40.209
708.783,39.81
709.051,39.362
709.319,38.901
709.588,38.483
709.856,38.136
710.125,37.743
710.393,37.354
710.661,36.969
710.93,36.654
711.198,36.372
711.467,35.925
711.735,35.436
712.003,34.926
712.272,34.562
712.54,34.231
712.808,33.816
713.077,33.431
713.345,33.054
713.613,32.799
713.882,32.527
714.15,32.229
714.418,31.811
714.687,31.32
714.955,30.72
715.223,30.061
715.491,29.396
715.76,28.791
716.028,28.205
716.296,27.605
716.565,27.03
716.833,26.631
717.101,26.395
717.369,26.298
717.638,26.262
717.906,26.216
718.174,26.105
718.443,25.961
718.711,25.834
718.979,25.741
719.247,25.63
719.516,25.513
719.784,25.41
720.052,25.31
720.321,25.199
720.589,25.039
720.857,24.887
721.125,24.743
721.394,24.64
721.662,24.556
721.93,24.485
722.199,24.431
722.467,24.366
722.735,24.371
723.003,24.352
723.272,24.349
723.54,24.292
723.808,24.284
724.077,24.295
724.345,24.322
724.613,24.349
724.882,24.36
725.15,24.363
725.418,24.347
725.687,24.309
725.955,24.225
726.223,24.146
726.492,24.13
726.76,24.214
727.028,24.292
727.297,24.344
727.565,24.412
727.833,24.477
728.102,24.504
728.37,24.436
728.639,24.355
728.907,24.268
729.175,24.225
729.444,24.214
729.712,24.244
729.981,24.233
730.249,24.208
730.518,24.135
730.786,24.059
731.054,23.98
731.323,23.951
731.591,23.945
731.86,23.959
732.128,24.005
732.397,24.081
732.665,24.168
732.934,24.249
733.202,24.339
733.471,24.423
733.739,24.52
734.008,24.667
734.276,24.843
734.545,25.022
734.814,25.139
735.082,25.261
735.351,25.372
735.619,25.495
735.888,25.56
736.157,25.622
736.425,25.701
736.694,25.831
736.963,25.975
737.231,26.113
737.5,26.243
737.769,26.376
738.037,26.523
738.306,26.65
738.575,26.724
738.843,26.764
739.112,26.805
739.381,26.908
739.65,26.998
739.919,27.104
740.187,27.171
740.456,27.285
740.725,27.416
740.994,27.595
741.263,27.752
741.532,27.89
741.8,28.01
742.069,28.11
742.338,28.17
742.607,28.205
742.876,28.208
743.145,28.227
743.414,28.235
743.683,28.27
743.952,28.297
744.221,28.325
744.49,28.39
744.759,28.498
745.028,28.628
745.297,28.756
745.566,28.881
745.835,28.984
746.104,29.046
746.374,29.117
746.643,29.19
746.912,29.274
747.181,29.307
747.45,29.299
747.719,29.223
747.989,29.073
748.258,28.916
748.527,28.756
748.796,28.628
749.066,28.485
749.335,28.33
749.604,28.145
749.874,27.912
750.143,27.635
750.412,27.299
750.682,26.957
750.951,26.577
751.22,26.205
751.49,25.826
751.759,25.519
752.029,25.261
752.298,25.063
752.568,24.892
752.837,24.724
753.107,24.564
753.376,24.417
753.646,24.314
753.916,24.236
754.185,24.141
754.455,24.016
754.724,23.875
754.994,23.728
755.264,23.647
755.533,23.622
755.803,23.633
756.073,23.644
756.343,23.69
756.612,23.839
756.882,24.075
757.152,24.393
757.422,24.708
757.691,24.987
757.961,25.153
758.231,25.294
758.501,25.427
758.771,25.603
759.041,25.79
759.311,25.994
759.581,26.189
759.851,26.403
760.121,26.599
760.391,26.781
760.661,26.881
760.931,26.976
761.201,27.041
761.471,27.155
761.741,27.25
762.011,27.372
762.281,27.47
762.551,27.521
762.822,27.513
763.092,27.475
763.362,27.44
763.632,27.443
763.902,27.473
764.173,27.578
764.443,27.719
764.713,27.833
764.983,27.893
765.254,27.896
765.524,27.842
765.794,27.741
766.065,27.573
766.335,27.437
766.606,27.359
766.876,27.356
767.146,27.394
767.417,27.418
767.687,27.456
767.958,27.511
768.228,27.57
768.499,27.603
768.769,27.627
769.04,27.652
769.311,27.652
769.581,27.562
769.852,27.375
770.122,27.158
770.393,26.99
770.664,26.905
770.934,26.821
771.205,26.751
771.476,26.683
771.746,26.707
772.017,26.783
772.288,26.903
772.559,27.003
772.829,27.047
773.1,27.03
773.371,26.919
773.642,26.77
773.913,26.631
774.184,26.504
774.454,26.398
774.725,26.243
774.996,26.129
775.267,26.01
775.538,25.912
775.809,25.804
776.08,25.741
776.351,25.714
776.622,25.698
776.893,25.665
777.164,25.671
777.435,25.663
777.706,25.638
777.977,25.546
778.248,25.438
778.519,25.248
778.79,25.033
779.061,24.797
779.332,24.643
779.603,24.51
779.875,24.425
780.146,24.325
780.417,24.246
780.688,24.17
780.959,24.086
781.23,23.986
781.502,23.834
781.773,23.668
782.044,23.492
782.315,23.378
782.586,23.283
782.858,23.215
783.129,23.177
783.4,23.169
783.671,23.145
783.943,23.034
784.214,22.892
784.485,22.754
784.756,22.659
785.028,22.58
785.299,22.542
785.57,22.496
785.842,22.426
786.113,22.314
786.384,22.206
786.656,22.07
786.927,21.907
787.198,21.715
787.47,21.563
787.741,21.452
788.012,21.414
788.284,21.425
788.555,21.427
788.827,21.365
789.098,21.297
789.369,21.251
789.641,21.245
789.912,21.24
790.183,21.267
790.455,21.327
790.726,21.34
790.998,21.3
791.269,21.224
791.54,21.164
791.812,21.112
792.083,21.069
792.355,21.058
792.626,21.015
792.897,20.952
793.169,20.868
793.44,20.817
793.712,20.787
793.983,20.757
794.254,20.722
794.526,20.681
794.797,20.583
795.069,20.467
795.34,20.312
795.611,20.198
795.883,20.062
796.154,19.951
796.425,19.791
796.697,19.672
796.968,19.552
797.239,19.501
797.511,19.406
797.782,19.297
798.053,19.137
798.325,19.01
798.596,18.869
798.867,18.706
799.138,18.489
799.41,18.247
799.681,18.006
799.952,17.802
800.223,17.653
800.495,17.601
800.766,17.582
801.037,17.569
801.308,17.509
801.579,17.447
801.851,17.382
802.122,17.311
802.393,17.254
802.664,17.189
802.935,17.089
803.206,16.953
803.477,16.798
803.748,16.641
804.019,16.47
804.29,16.326
804.561,16.22
804.832,16.185
805.103,16.139
805.374,16.106
805.645,16.033
805.916,16.009
806.187,16.006
806.458,16.009
806.729,15.946
807,15.849
807.271,15.748
807.541,15.68
807.812,15.661
808.083,15.697
808.354,15.77
808.624,15.832
808.895,15.838
809.166,15.778
809.436,15.659
809.707,15.518
809.977,15.36
810.248,15.197
810.518,14.994
810.789,14.799
811.059,14.617
811.33,14.505
811.6,14.419
811.871,14.367
812.141,14.294
812.411,14.28
812.681,14.305
812.952,14.419
813.222,14.562
813.492,14.766
813.762,15.035
814.032,15.363
814.302,15.518
814.572,15.531
814.842,15.376
815.112,15.263
815.382,15.097
815.652,14.967
815.922,14.885
816.192,14.872
816.462,14.842
816.731,14.839
817.001,14.856
817.271,14.915
817.54,14.918
817.81,14.88
818.079,14.777
818.349,14.706
818.618,14.644
818.888,14.587
819.157,14.522
819.426,14.489
819.695,14.495
819.965,14.492
820.234,14.484
820.503,14.492
820.772,14.519
821.041,14.562
821.31,14.606
821.579,14.693
821.848,14.739
822.116,14.799
822.385,14.826
822.654,14.899
822.923,14.969
823.191,15.045
823.46,15.089
823.728,15.116
823.997,15.119
824.265,15.108
824.533,15.04
824.802,14.942
825.07,14.78
825.338,14.609
825.606,14.465
825.874,14.394
826.142,14.373
826.41,14.362
826.678,14.34
826.945,14.337
827.213,14.321
827.481,14.321
827.748,14.297
828.016,14.267
828.283,14.223
828.551,14.18
828.818,14.117
829.085,14.093
829.352,14.077
829.619,14.098
829.887,14.123
830.153,14.188
830.42,14.288
830.687,14.43
830.954,14.595
831.221,14.782
831.487,14.967
831.754,15.143
832.02,15.249
832.287,15.303
832.553,15.284
832.819,15.181
833.085,14.926
833.351,14.587
833.617,14.196
833.883,13.884
834.149,13.64
834.415,13.531
834.68,13.469
834.946,13.472
835.212,13.472
835.477,13.474
835.742,13.436
836.008,13.404
836.273,13.369
836.538,13.36
836.803,13.36
837.068,13.404
837.333,13.439
837.597,13.507
837.862,13.542
838.126,13.591
838.391,13.607
838.655,13.618
838.92,13.597
839.184,13.556
839.448,13.502
839.712,13.458
839.976,13.398
840.239,13.36
840.503,13.306
840.767,13.282
841.03,13.252
841.294,13.255
841.557,13.279
841.82,13.344
842.083,13.436
842.346,13.504
842.609,13.521
842.872,13.477
843.135,13.322
843.397,13.119
843.66,12.848
843.922,12.609
844.185,12.395
844.447,12.218
844.709,12.093
844.971,12.02
845.233,11.996
845.494,12.017
845.756,12.007
846.018,12.036
846.279,12.08
846.54,12.167
846.801,12.259
847.063,12.346
847.324,12.378
847.584,12.343
847.845,12.207
848.106,12.063
848.366,11.852
848.627,11.681
848.887,11.526
849.147,11.439
849.407,11.363
849.667,11.298
849.927,11.212
850.187,11.163
850.446,11.1
850.706,11.089
850.965,11.087
851.224,11.141
851.483,11.165
851.742,11.193
852.001,11.193
852.26,11.217
852.518,11.174
852.777,11.114
853.035,10.967
853.293,10.786
853.551,10.56
853.809,10.392
854.067,10.273
854.325,10.186
854.582,10.066
854.84,9.982
855.097,9.898
855.354,9.879
855.611,9.847
855.868,9.828
856.125,9.814
856.381,9.801
856.638,9.801
856.894,9.798
857.15,9.809
857.406,9.795
857.662,9.719
857.918,9.611
858.174,9.489
858.429,9.41
858.685,9.334
858.94,9.236
859.195,9.155
859.45,9.122
859.705,9.141
859.959,9.103
860.214,9.027
860.468,8.965
860.723,8.943
860.977,8.949
861.231,8.93
861.485,8.919
861.738,8.84
861.992,8.775
862.245,8.696
862.498,8.647
862.751,8.563
863.004,8.495
863.257,8.438
863.51,8.411
863.762,8.384
864.015,8.395
864.267,8.384
864.519,8.368
864.771,8.314
865.022,8.3
865.274,8.284
865.525,8.295
865.777,8.322
866.028,8.33
866.279,8.303
866.53,8.262
866.78,8.219
867.031,8.162
867.281,8.053
867.531,7.974
867.781,7.863
868.031,7.785
868.281,7.679
868.53,7.649
868.78,7.6
869.029,7.576
869.278,7.527
869.527,7.516
869.776,7.505
870.025,7.513
870.273,7.492
870.521,7.464
870.769,7.451
871.017,7.429
871.265,7.405
871.513,7.367
871.76,7.331
872.008,7.274
872.255,7.212
872.502,7.158
872.749,7.125
872.996,7.085
873.242,7.03
873.488,6.981
873.735,6.962
873.981,6.976
874.227,6.984
874.472,6.981
874.718,6.962
874.963,6.933
875.209,6.922
875.454,6.954
875.699,7
875.943,6.99
876.188,6.922
876.432,6.862
876.677,6.827
876.921,6.824
877.165,6.829
877.408,6.846
877.652,6.854
877.895,6.854
878.139,6.838
878.382,6.827
878.625,6.778
878.868,6.748
879.11,6.699
879.353,6.697
879.595,6.678
879.837,6.661
880.079,6.648
880.321,6.618
880.563,6.588
880.804,6.545
881.045,6.515
881.287,6.485
881.528,6.466
881.768,6.466
882.009,6.469
882.25,6.455
882.49,6.436
882.73,6.433
882.97,6.45
883.21,6.441
883.45,6.417
883.689,6.401
883.929,6.398
884.168,6.39
884.407,6.363
884.646,6.333
884.885,6.311
885.123,6.295
885.362,6.265
885.6,6.262
885.838,6.252
886.076,6.238
886.314,6.192
886.552,6.154
886.789,6.132
887.026,6.121
887.264,6.097
887.501,6.11
887.737,6.138
887.974,6.181
888.211,6.173
888.447,6.135
888.683,6.075
888.92,6.043
889.156,6.029
889.391,6.034
889.627,6.032
889.863,6.037
890.098,6.024
890.333,6.032
890.568,6.04
890.803,6.072
891.038,6.062
891.273,6.075
891.507,6.097
891.741,6.151
891.976,6.146
892.21,6.132
892.444,6.108
892.677,6.086
892.911,6.056
893.145,6.04
893.378,6.045
893.611,6.048
893.844,6.032
894.077,6.024
894.31,6.015
894.543,6.024
894.775,6.007
895.008,5.996
895.24,5.999
895.472,6.04
895.704,6.083
895.936,6.121
896.168,6.138
896.4,6.135
896.631,6.119
896.863,6.083
897.094,6.083
897.325,6.129
897.556,6.184
897.787,6.186
898.018,6.124
898.249,6.083
898.48,6.07
898.71,6.094
898.941,6.124
899.171,6.157
899.401,6.124
899.631,6.089
899.861,6.072
900.091,6.108
900.321,6.11
900.55,6.078
900.78,6.034
901.009,6.043
901.239,6.07
901.468,6.113
901.697,6.119
901.926,6.148
902.155,6.14
902.384,6.086
902.613,6.007
902.842,5.98
903.071,6.018
903.299,6.053
903.528,6.072
903.756,6.097
903.984,6.1
904.213,6.108
904.441,6.086
904.669,6.086
904.897,6.048
905.125,6.037
905.353,6.032
905.581,6.081
905.809,6.091
906.037,6.097
906.264,6.067
906.492,6.062
906.72,6.04
906.947,6.024
907.175,6.002
907.402,5.996
907.63,5.967
907.857,5.939
908.085,5.92
908.312,5.923
908.539,5.904
908.766,5.893
908.994,5.91
909.221,5.975
909.448,6.013
909.675,6.018
909.903,5.988
910.13,5.967
910.357,5.95
910.584,5.942
910.811,5.937
911.038,5.956
911.265,5.988
911.492,6.002
911.72,5.999
911.947,5.991
912.174,6.002
912.401,6.026
912.628,6.037
912.855,6.037
913.083,6.029
913.31,6.048
913.537,6.067
913.764,6.081
913.992,6.089
914.219,6.108
914.446,6.138
914.674,6.148
914.901,6.135
915.129,6.105
915.357,6.075
915.584,6.062
915.812,6.051
916.04,6.075
916.268,6.11
916.495,6.146
916.723,6.151
916.952,6.129
917.18,6.089
917.408,6.034
917.636,5.999
917.865,5.999
918.093,6.021
918.322,6.072
918.551,6.097
918.779,6.105
919.008,6.094
919.237,6.102
919.467,6.091
919.696,6.1
919.925,6.113
920.155,6.176
920.385,6.23
920.614,6.279
920.844,6.295
921.074,6.273
921.305,6.227
921.535,6.184
921.766,6.146
921.997,6.129
922.227,6.116
922.459,6.124
922.69,6.091
922.921,6.04
923.153,5.967
923.385,5.934
923.617,5.92
923.849,5.934
924.082,5.934
924.314,5.95
924.547,5.953
924.78,5.964
925.014,5.975
925.247,5.999
925.481,5.999
925.715,5.977
925.949,5.918
926.184,5.912
926.419,5.923
926.654,5.98
926.889,6.026
927.125,6.07
927.361,6.097
927.597,6.11
927.833,6.081
928.07,6.032
928.307,5.964
928.544,5.934
928.782,5.907
929.02,5.92
929.258,5.939
929.497,5.999
929.736,6.07
929.975,6.151
930.215,6.097
930.455,5.999
930.695,5.891
930.936,5.899
931.177,5.931
931.419,5.991
931.661,6.048
931.903,6.1
932.145,6.119
932.388,6.148
932.632,6.146
932.876,6.116
933.12,6.053
933.365,6.037
933.61,6.062
933.856,6.1
934.102,6.091
934.348,6.072
934.595,6.064
934.843,6.081
935.091,6.097
935.339,6.135
935.588,6.197
935.837,6.29
936.087,6.336
936.337,6.33
936.588,6.29
936.84,6.281
937.092,6.26
937.344,6.224
937.597,6.173
937.851,6.135
938.105,6.119
938.36,6.127
938.615,6.132
938.871,6.129
939.128,6.119
939.385,6.135
939.643,6.143
939.901,6.138
940.16,6.138
940.419,6.162
940.68,6.162
940.941,6.127
941.202,6.094
941.464,6.081
941.727,6.081
941.991,6.081
942.255,6.113
942.52,6.176
942.786,6.243
943.052,6.303
943.319,6.341
943.587,6.365
943.856,6.36
944.125,6.352
944.396,6.314
944.666,6.29
944.938,6.271
945.211,6.3
945.484,6.317
945.758,6.333
946.033,6.311
946.309,6.29
946.585,6.298
946.863,6.333
947.141,6.355
947.42,6.357
947.7,6.371
947.981,6.431
948.263,6.474
948.546,6.493
948.83,6.479
949.114,6.479
949.4,6.482
949.686,6.509
949.974,6.504
950.262,6.512
